# K filter curve @ T=90K 
# K
# Wavelength (nm)	T (%)
 497.000	 0.000266825	
 498.988	-0.000228290	
 500.976	 0.000979493	
 502.964	-0.001500235	
 504.952	 0.000150599	
 506.940	-0.000959903	
 508.928	-0.000077500	
 510.916	-0.000082100	
 512.904	-0.000478464	
 514.892	-0.000373631	
 516.880	 0.000544385	
 518.868	 0.000507415	
 520.856	 0.000179691	
 522.844	-0.000640896	
 524.832	 0.000111137	
 526.820	 0.000598623	
 528.808	 0.000926607	
 530.796	 0.000531246	
 532.784	-0.000295818	
 534.772	 0.000609278	
 536.760	 0.000049500	
 538.748	-0.000027200	
 540.736	 0.000339538	
 542.724	 0.000041800	
 544.712	-0.000293703	
 546.700	 0.000096500	
 548.688	-0.000235075	
 550.676	 0.000543028	
 552.664	 0.000213077	
 554.652	-0.000225214	
 556.640	 0.000274730	
 558.628	-0.000108021	
 560.616	-0.000173175	
 562.604	 0.000104298	
 564.592	-0.000744925	
 566.580	 0.000031200	
 568.568	-0.000457618	
 570.556	-0.000258539	
 572.544	-0.000952038	
 574.532	-0.000642884	
 576.520	-0.000314157	
 578.508	 0.000223374	
 580.496	-0.000708906	
 582.484	 0.000233143	
 584.472	 0.000805460	
 586.460	-0.000412907	
 588.448	 0.000142200	
 590.436	-0.000313557	
 592.424	 0.000437956	
 594.412	 0.000339875	
 596.400	-0.000174910	
 598.388	 0.000165583	
 600.376	-0.001063781	
 602.364	 0.000045800	
 604.352	-0.000083800	
 606.340	 0.001197710	
 608.328	 0.000366391	
 610.316	-0.000411443	
 612.304	-0.000471024	
 614.292	-0.000813063	
 616.280	-0.000124232	
 618.268	 0.000009890	
 620.256	-0.000922562	
 622.244	-0.000357743	
 624.232	 0.000112120	
 626.220	-0.000043700	
 628.208	 0.000170072	
 630.196	-0.000075100	
 632.184	-0.000364263	
 634.172	-0.000265755	
 636.160	-0.000689146	
 638.148	 0.000230465	
 640.136	 0.000120910	
 642.124	 0.000677588	
 644.112	-0.000193467	
 646.100	 0.000631569	
 648.088	 0.000115651	
 650.076	-0.000030700	
 652.064	 0.000009110	
 654.052	-0.000960503	
 656.040	 0.000027400	
 658.028	 0.000244797	
 660.016	-0.000153509	
 662.004	 0.000184354	
 663.992	-0.000152487	
 665.980	 0.000359169	
 667.968	 0.000165493	
 669.956	 0.000288220	
 671.944	 0.000465859	
 673.932	 0.000924555	
 675.920	-0.000564644	
 677.908	 0.000447968	
 679.896	-0.000107676	
 681.884	-0.000086100	
 683.872	-0.000441014	
 685.860	-0.000574654	
 687.848	-0.000425932	
 689.836	-0.000027200	
 691.824	-0.000336704	
 693.812	 0.000575999	
 695.800	 0.000104998	
 697.788	 0.000141905	
 699.776	-0.000137682	
 701.764	 0.000246460	
 703.752	-0.000090200	
 705.740	-0.000213296	
 707.728	-0.000151448	
 709.716	 0.000356485	
 711.704	-0.000990924	
 713.692	 0.000187023	
 715.680	-0.000150930	
 717.668	 0.000713986	
 719.656	-0.000074500	
 721.644	 0.000225932	
 723.632	-0.000181524	
 725.620	 0.000233449	
 727.608	-0.000114833	
 729.596	 0.000621714	
 731.584	 0.000596182	
 733.572	-0.000328564	
 735.560	-0.000434251	
 737.548	 0.000518395	
 739.536	 0.000228704	
 741.524	 0.000353547	
 743.512	-0.000289964	
 745.500	-0.000222531	
 747.488	-0.000760328	
 749.476	-0.000546646	
 751.464	 0.000045800	
 753.452	 0.000112151	
 755.440	-0.000665489	
 757.428	-0.000053800	
 759.416	-0.000163701	
 761.404	-0.000272981	
 763.392	 0.000089700	
 765.380	 0.000046200	
 767.368	 0.000415203	
 769.356	 0.000896866	
 771.344	 0.001003686	
 773.332	 0.000256549	
 775.320	 0.000036300	
 777.308	 0.000409307	
 779.296	-0.000542559	
 781.284	-0.000608713	
 783.272	-0.000343823	
 785.260	 0.000273013	
 787.248	-0.000024500	
 789.236	-0.000193102	
 791.224	 0.001004327	
 793.212	-0.000950547	
 795.200	 0.000116056	
 797.188	-0.000305100	
 799.176	-0.000205814	
 801.164	 0.000643710	
 803.152	-0.000189939	
 805.140	 0.000672052	
 807.128	 0.000652829	
 809.116	-0.000250125	
 811.104	-0.000546007	
 813.092	-0.000009840	
 815.080	 0.000536653	
 817.068	 0.000251377	
 819.056	-0.000030200	
 821.044	-0.000153305	
 823.032	-0.000819575	
 825.020	-0.002539246	
 827.008	-0.003072413	
 828.996	-0.001990174	
 830.984	-0.004547140	
 832.972	-0.005736475	
 834.960	-0.002370483	
 836.948	-0.001156259	
 838.936	-0.005150869	
 840.924	-0.002400610	
 842.912	-0.002223927	
 844.900	-0.003240955	
 846.888	-0.003324352	
 848.876	-0.002250341	
 850.864	-0.003088183	
 852.852	-0.007194612	
 854.840	-0.003410840	
 856.828	 0.001593784	
 858.816	 0.001632051	
 860.804	-0.009394489	
 862.792	-0.006297167	
 864.780	-0.000576065	
 866.768	-0.005874760	
 868.756	-0.006134281	
 870.744	-0.009229851	
 872.732	-0.001839100	
 874.720	-0.004209063	
 876.708	-0.008496072	
 878.696	-0.006294023	
 880.684	-0.003738854	
 882.672	-0.000387679	
 884.660	-0.001773260	
 886.648	-0.004020993	
 888.636	-0.007120688	
 890.624	 0.000254070	
 892.612	-0.004752922	
 894.600	-0.008816924	
 896.588	-0.001291478	
 898.576	-0.002138791	
 900.564	-0.002937285	
 902.552	-0.007988682	
 904.540	-0.003204504	
 906.528	-0.005316321	
 908.516	-0.004045620	
 910.504	-0.002175144	
 912.492	-0.000137332	
 914.480	-0.000755271	
 916.468	-0.003432752	
 918.456	-0.000222165	
 920.444	 0.001612692	
 922.432	-0.007788269	
 924.420	-0.004876584	
 926.408	-0.002660249	
 928.396	-0.000525515	
 930.384	-0.007122533	
 932.372	 0.008824370	
 934.360	-0.001759191	
 936.348	-0.006645317	
 938.336	-0.006934523	
 940.324	-0.003023655	
 942.312	-0.000693292	
 944.300	-0.005848615	
 946.288	-0.004245806	
 948.276	-0.003904926	
 950.264	-0.004490691	
 952.252	-0.003582058	
 954.240	-0.003264214	
 956.228	-0.004595858	
 958.216	-0.003188546	
 960.204	-0.002882940	
 962.192	-0.004936312	
 964.180	-0.000692723	
 966.168	-0.003646876	
 968.156	-0.004472746	
 970.144	-0.005430152	
 972.132	-0.004453406	
 974.120	-0.003229751	
 976.108	-0.006196438	
 978.096	-0.005154889	
 980.084	-0.000914397	
 982.072	-0.001796308	
 984.060	 0.001472222	
 986.048	-0.004355677	
 988.036	-0.002138298	
 990.024	-0.006995014	
 992.012	-0.008074483	
 994.000	-0.008837654	
 995.988	-0.000366176	
 997.976	-0.003053311	
 999.964	-0.008358102	
1001.952	 0.002680433	
1003.940	-0.004116969	
1005.928	-0.005445580	
1007.916	-0.002926475	
1009.904	-0.004105057	
1011.892	-0.004153478	
1013.880	-0.004081131	
1015.868	-0.004353099	
1017.856	-0.002047910	
1019.844	-0.004107201	
1021.832	-0.001551450	
1023.820	-0.002349587	
1025.808	-0.006381662	
1027.796	-0.002685077	
1029.784	-0.001784679	
1031.772	-0.004706248	
1033.760	-0.004062518	
1035.748	-0.003320701	
1037.736	-0.004256614	
1039.724	-0.006010878	
1041.712	-0.003634616	
1043.700	 0.000511831	
1045.688	-0.003754844	
1047.676	-0.002177718	
1049.664	-0.000925498	
1051.652	-0.005849278	
1053.640	-0.002499106	
1055.628	-0.002802875	
1057.616	-0.000455623	
1059.604	-0.007138251	
1061.592	-0.004563542	
1063.580	-0.006184021	
1065.568	-0.005506671	
1067.556	 0.001689096	
1069.544	-0.001368630	
1071.532	 0.000144333	
1073.520	-0.006041637	
1075.508	-0.007043762	
1077.496	 0.002475685	
1079.484	-0.007207651	
1081.472	-0.000571671	
1083.460	-0.006815726	
1085.448	-0.001586154	
1087.436	-0.003236764	
1089.424	 0.002971770	
1091.412	 0.000435354	
1093.400	-0.006457097	
1095.388	-0.002100853	
1097.376	-0.004370587	
1099.364	-0.003347953	
1101.352	-0.005090984	
1103.340	-0.004752981	
1105.328	-0.002816552	
1107.316	-0.009172774	
1109.304	-0.008395785	
1111.292	 0.005359757	
1113.280	-0.001445654	
1115.268	 0.000153414	
1117.256	-0.006491985	
1119.244	-0.003399353	
1121.232	-0.005399177	
1123.220	-0.009193334	
1125.208	 0.016629107	
1127.196	-0.011148329	
1129.184	-0.006307282	
1131.172	-0.002868836	
1133.160	-0.010235972	
1135.148	-0.001970172	
1137.136	-0.012773519	
1139.124	 0.009175805	
1141.112	-0.001015569	
1143.100	-0.004568622	
1145.088	-0.007294139	
1147.076	 0.008383292	
1149.064	-0.006372668	
1151.052	-0.009873820	
1153.040	-0.005173511	
1155.028	 0.003808816	
1157.016	-0.005616788	
1159.004	 0.000381126	
1160.992	-0.008724847	
1162.980	-0.003805182	
1164.968	-0.006821397	
1166.956	-0.003452882	
1168.944	-0.005509166	
1170.932	-0.006002173	
1172.920	-0.000922373	
1174.908	 0.000023600	
1176.896	-0.004660362	
1178.884	-0.002642022	
1180.872	-0.003451192	
1182.860	-0.009890885	
1184.848	-0.002319398	
1186.836	-0.003869943	
1188.824	-0.000441996	
1190.812	-0.003467521	
1192.800	-0.003896604	
1194.788	-0.003087095	
1196.776	-0.002371649	
1198.764	-0.003519629	
1200.752	-0.004484414	
1202.740	-0.000033400	
1204.728	-0.000420249	
1206.716	 0.000347873	
1208.704	-0.002358227	
1210.692	-0.002748618	
1212.680	-0.002753983	
1214.668	-0.000057200	
1216.656	-0.003928839	
1218.644	-0.001198287	
1220.632	-0.001186850	
1222.620	-0.005384459	
1224.608	-0.008483147	
1226.596	-0.001762506	
1228.584	 0.006471670	
1230.572	-0.003509137	
1232.560	-0.003904913	
1234.548	-0.000188636	
1236.536	-0.000293586	
1238.524	-0.008137319	
1240.512	-0.003859818	
1242.500	-0.000436248	
1244.488	-0.006176141	
1246.476	-0.003929924	
1248.464	-0.000599774	
1250.452	-0.005646608	
1252.440	-0.009624935	
1254.428	-0.000074000	
1256.416	-0.000868617	
1258.404	-0.006964677	
1260.392	-0.000451520	
1262.380	-0.003171898	
1264.368	-0.005583122	
1266.356	-0.006004682	
1268.344	-0.003717580	
1270.332	-0.000807272	
1272.320	-0.006541378	
1274.308	-0.006174490	
1276.296	-0.003551753	
1278.284	-0.003740080	
1280.272	-0.007375079	
1282.260	-0.005792514	
1284.248	 0.004022618	
1286.236	-0.004528529	
1288.224	-0.000163414	
1290.212	-0.002558158	
1292.200	-0.002978540	
1294.188	-0.007189018	
1296.176	-0.005049933	
1298.164	-0.002908972	
1300.152	-0.003213409	
1302.140	-0.004705433	
1304.128	-0.001716301	
1306.116	-0.003080859	
1308.104	-0.006225109	
1310.092	-0.001706525	
1312.080	-0.005473923	
1314.068	 0.000966360	
1316.056	-0.003992937	
1318.044	-0.001787020	
1320.032	-0.005285883	
1322.020	-0.005065551	
1324.008	-0.004672239	
1325.996	-0.008495609	
1327.984	-0.000178579	
1329.972	-0.002265888	
1331.960	-0.009337269	
1333.948	 0.001311885	
1335.936	-0.012352902	
1337.924	 0.000529458	
1339.912	-0.006121727	
1341.900	-0.008399236	
1343.888	 0.005736773	
1345.876	-0.008722006	
1347.864	-0.001204553	
1349.852	-0.002788091	
1351.840	-0.005385465	
1353.828	-0.002966103	
1355.816	 0.002252064	
1357.804	-0.009630299	
1359.792	-0.006830214	
1361.780	-0.002174835	
1363.768	-0.006952592	
1365.756	-0.004649583	
1367.744	-0.004796654	
1369.732	-0.003228280	
1371.720	-0.003468863	
1373.708	 0.002192021	
1375.696	-0.005494478	
1377.684	 0.001929015	
1379.672	-0.010488303	
1381.660	-0.001146058	
1383.648	-0.004572685	
1385.636	-0.007905819	
1387.624	-0.001504859	
1389.612	-0.005469119	
1391.600	-0.001454015	
1393.588	-0.004574980	
1395.576	 0.000520941	
1397.564	-0.000250160	
1399.552	-0.000422902	
1401.540	-0.005189927	
1403.528	-0.004542773	
1405.516	-0.001764442	
1407.504	-0.007427321	
1409.492	-0.006073222	
1411.480	-0.002290483	
1413.468	-0.004842817	
1415.456	-0.007165338	
1417.444	 0.001311006	
1419.432	-0.003936796	
1421.420	-0.002001035	
1423.408	-0.005659134	
1425.396	-0.004988498	
1427.384	-0.011341359	
1429.372	 0.007220978	
1431.360	-0.005249044	
1433.348	 0.000271990	
1435.336	-0.002059932	
1437.324	-0.003109566	
1439.312	-0.004396909	
1441.300	-0.003805325	
1443.288	-0.004360266	
1445.276	-0.004175987	
1447.264	-0.002140437	
1449.252	-0.000526258	
1451.240	-0.011118490	
1453.228	-0.002850377	
1455.216	-0.005650871	
1457.204	-0.006792956	
1459.192	-0.007408255	
1461.180	-0.006119282	
1463.168	-0.002135371	
1465.156	 0.002171734	
1467.144	-0.006648302	
1469.132	-0.008167448	
1471.120	-0.005304214	
1473.108	-0.002313215	
1475.096	-0.005920050	
1477.084	-0.006129034	
1479.072	-0.006553728	
1481.060	-0.006485479	
1483.048	 0.002548478	
1485.036	-0.001798582	
1487.024	-0.004346134	
1489.012	-0.002922934	
1491.000	-0.002521609	
1492.988	 0.002546014	
1494.976	-0.005531922	
1496.964	-0.008101621	
1498.952	-0.007510935	
1500.940	-0.003967984	
1502.928	 0.000757237	
1504.916	-0.001594834	
1506.904	-0.002935949	
1508.892	-0.003154065	
1510.880	-0.004891410	
1512.868	-0.000692503	
1514.856	-0.007533822	
1516.844	-0.003447880	
1518.832	-0.003298277	
1520.820	-0.002957801	
1522.808	-0.003736680	
1524.796	-0.003117381	
1526.784	-0.000297124	
1528.772	-0.001982112	
1530.760	 0.000485197	
1532.748	-0.002898730	
1534.736	-0.006112773	
1536.724	-0.004623518	
1538.712	 0.006284055	
1540.700	-0.015919955	
1542.688	-0.002706079	
1544.676	-0.001069997	
1546.664	-0.004638588	
1548.652	-0.002408861	
1550.640	-0.000877742	
1552.628	-0.001436285	
1554.616	 0.001161524	
1556.604	-0.008698638	
1558.592	-0.003697077	
1560.580	-0.002591462	
1562.568	-0.000340580	
1564.556	-0.002269691	
1566.544	-0.000799767	
1568.532	-0.001014562	
1570.520	-0.006454941	
1572.508	-0.006321552	
1574.496	-0.002784403	
1576.484	-0.002976535	
1578.472	-0.003318029	
1580.460	-0.004897058	
1582.448	-0.004489238	
1584.436	 0.003349381	
1586.424	-0.002848378	
1588.412	-0.002772521	
1590.400	-0.008032778	
1592.388	-0.007668227	
1594.376	-0.000535481	
1596.364	-0.005750151	
1598.352	-0.001271165	
1600.340	-0.004081135	
1602.328	-0.000715429	
1604.316	-0.003527871	
1606.304	-0.003773251	
1608.292	-0.004699353	
1610.280	-0.004459729	
1612.268	-0.003863803	
1614.256	-0.000171297	
1616.244	-0.008245510	
1618.232	-0.002807142	
1620.220	 0.002425544	
1622.208	-0.002267631	
1624.196	-0.006083027	
1626.184	-0.004455313	
1628.172	 0.001283779	
1630.160	-0.005960579	
1632.148	-0.001922086	
1634.136	-0.001119355	
1636.124	-0.006321007	
1638.112	-0.003574560	
1640.100	-0.009794746	
1642.088	 0.006199014	
1644.076	-0.002097284	
1646.064	-0.004124666	
1648.052	 0.006018543	
1650.040	-0.008824843	
1652.028	-0.003520238	
1654.016	-0.003691602	
1656.004	-0.003588653	
1657.992	-0.004685394	
1659.980	-0.002692329	
1661.968	-0.003619298	
1663.956	-0.000617143	
1665.944	-0.006729049	
1667.932	-0.005423227	
1669.920	-0.001890218	
1671.908	-0.004754063	
1673.896	-0.014446552	
1675.884	 0.005539138	
1677.872	 0.000314048	
1679.860	-0.003411559	
1681.848	-0.005286102	
1683.836	-0.002640127	
1685.824	-0.000983693	
1687.812	-0.000195813	
1689.800	-0.004120013	
1691.788	-0.006381807	
1693.776	-0.005152008	
1695.764	-0.001932060	
1697.752	-0.002196916	
1699.740	-0.001519294	
1701.728	-0.006441386	
1703.716	-0.008090630	
1705.704	-0.005108376	
1707.692	-0.004296423	
1709.680	-0.002801982	
1711.668	-0.004524506	
1713.656	-0.002757729	
1715.644	-0.003665280	
1717.632	-0.008581490	
1719.620	-0.001155486	
1721.608	-0.002899445	
1723.596	-0.005656202	
1725.584	-0.003608093	
1727.572	-0.003063840	
1729.560	-0.003450121	
1731.548	-0.003921830	
1733.536	-0.001900051	
1735.524	-0.004816550	
1737.512	-0.001610150	
1739.500	-0.010856308	
1741.488	 0.002494982	
1743.476	-0.002913924	
1745.464	-0.009391641	
1747.452	 0.005146610	
1749.440	-0.005282921	
1751.428	-0.005314431	
1753.416	-0.003769092	
1755.404	-0.002407359	
1757.392	-0.006992782	
1759.380	-0.001785797	
1761.368	-0.000466093	
1763.356	-0.003631928	
1765.344	-0.007318879	
1767.332	-0.007884965	
1769.320	-0.002147290	
1771.308	-0.003936835	
1773.296	-0.001362111	
1775.284	-0.003254570	
1777.272	-0.003300523	
1779.260	-0.010392698	
1781.248	 0.006885853	
1783.236	-0.013648823	
1785.224	 0.001374899	
1787.212	-0.003541830	
1789.200	-0.004346567	
1791.188	-0.001600097	
1793.176	-0.004736505	
1795.164	-0.008417452	
1797.152	 0.003841893	
1799.140	 0.000753883	
1801.128	-0.004351865	
1803.116	 0.000719148	
1805.104	 0.000427268	
1807.092	-0.001631473	
1809.080	-0.000893372	
1811.068	-0.001914214	
1813.056	-0.001061503	
1815.044	-0.002489950	
1817.032	-0.005059219	
1819.020	-0.002257069	
1821.008	-0.003684540	
1822.996	-0.005329343	
1824.984	-0.003456031	
1826.972	-0.003115135	
1828.960	 0.002038714	
1830.948	-0.006564763	
1832.936	-0.005194032	
1834.924	-0.003087142	
1836.912	-0.003676452	
1838.900	-0.001083341	
1840.888	-0.001920477	
1842.876	-0.002468867	
1844.864	-0.000656456	
1846.852	-0.002960050	
1848.840	-0.004379580	
1850.828	-0.000926140	
1852.816	-0.004537360	
1854.804	-0.000402510	
1856.792	-0.005099074	
1858.780	 0.001572133	
1860.768	 0.001937027	
1862.756	-0.004756946	
1864.744	-0.001675996	
1866.732	 0.000106955	
1868.720	 0.000152225	
1870.708	-0.001143111	
1872.696	-0.000460519	
1874.684	-0.003076600	
1876.672	-0.004371129	
1878.660	-0.000070100	
1880.648	-0.003507982	
1882.636	 0.009000352	
1884.624	 0.002654119	
1886.612	 0.000940809	
1888.600	-0.002466550	
1890.588	 0.006631515	
1892.576	 0.008191666	
1894.564	 0.013797576	
1896.552	 0.009592571	
1898.540	 0.015569467	
1900.528	 0.022585686	
1902.516	 0.027011396	
1904.504	 0.037168853	
1906.492	 0.052334275	
1908.480	 0.065497503	
1910.468	 0.092310436	
1912.456	 0.109788150	
1914.444	 0.149835467	
1916.432	 0.190114155	
1918.420	 0.238005698	
1920.408	 0.291509151	
1922.396	 0.349899709	
1924.384	 0.409219235	
1926.372	 0.471946597	
1928.360	 0.536275744	
1930.348	 0.597074151	
1932.336	 0.665005088	
1934.324	 0.739980161	
1936.312	 0.818478227	
1938.300	 0.912339866	
1940.288	 1.008391857	
1942.276	 1.136072993	
1944.264	 1.287239552	
1946.252	 1.480282307	
1948.240	 1.698910117	
1950.228	 1.971799374	
1952.216	 2.317011833	
1954.204	 2.784301996	
1956.192	 3.351060629	
1958.180	 4.053459644	
1960.168	 4.972446442	
1962.156	 6.138072968	
1964.144	 7.629930973	
1966.132	 9.561995506	
1968.120	11.991965294	
1970.108	15.144146919	
1972.096	18.889846802	
1974.084	23.343593597	
1976.072	28.378110886	
1978.060	33.587856293	
1980.048	38.742835999	
1982.036	43.625045776	
1984.024	48.082164764	
1986.012	51.526580811	
1988.000	54.418098450	
1989.988	56.762050629	
1991.976	58.773517609	
1993.964	60.545085907	
1995.952	62.221263885	
1997.940	63.939292908	
1999.928	65.567115784	
2001.916	67.274703979	
2003.904	69.006446838	
2005.892	70.588584900	
2007.880	72.166694641	
2009.868	73.539978027	
2011.856	74.765670776	
2013.844	75.727455139	
2015.832	76.461112976	
2017.820	77.015121460	
2019.808	77.269172668	
2021.796	77.447052002	
2023.784	77.490409851	
2025.772	77.380226135	
2027.760	77.277030945	
2029.748	77.137443542	
2031.736	77.081565857	
2033.724	76.984039307	
2035.712	76.982055664	
2037.700	77.072853088	
2039.688	77.211631775	
2041.676	77.412918091	
2043.664	77.702690125	
2045.652	77.996482849	
2047.640	78.340133667	
2049.628	78.667610168	
2051.616	79.020843506	
2053.604	79.392448425	
2055.592	79.673645020	
2057.580	79.970489502	
2059.568	80.185897827	
2061.556	80.339904785	
2063.544	80.513923645	
2065.532	80.553749084	
2067.520	80.588302612	
2069.508	80.633483887	
2071.496	80.588500977	
2073.484	80.557563782	
2075.472	80.503768921	
2077.460	80.472747803	
2079.448	80.413291931	
2081.436	80.399795532	
2083.424	80.429458618	
2085.412	80.421875000	
2087.400	80.504058838	
2089.388	80.583625793	
2091.376	80.678184509	
2093.364	80.843429565	
2095.352	80.990859985	
2097.340	81.171379089	
2099.328	81.377342224	
2101.316	81.536605835	
2103.304	81.746299744	
2105.292	81.924018860	
2107.280	82.086822510	
2109.268	82.225669861	
2111.256	82.353652954	
2113.244	82.465270996	
2115.232	82.513839722	
2117.220	82.584114075	
2119.208	82.613937378	
2121.196	82.576690674	
2123.184	82.567031860	
2125.172	82.504837036	
2127.160	82.409255981	
2129.148	82.336608887	
2131.136	82.245506287	
2133.124	82.165977478	
2135.112	82.035682678	
2137.100	81.944427490	
2139.088	81.833129883	
2141.076	81.757614136	
2143.064	81.683082581	
2145.052	81.621307373	
2147.040	81.578842163	
2149.028	81.561714172	
2151.016	81.557075500	
2153.004	81.604537964	
2154.992	81.614761353	
2156.980	81.691947937	
2158.968	81.759819031	
2160.956	81.823043823	
2162.944	81.975158691	
2164.932	82.089408875	
2166.920	82.249176025	
2168.908	82.329734802	
2170.896	82.511016846	
2172.884	82.664009094	
2174.872	82.786949158	
2176.860	82.922378540	
2178.848	83.014305115	
2180.836	83.148452759	
2182.824	83.208015442	
2184.812	83.279083252	
2186.800	83.386619568	
2188.788	83.421081543	
2190.776	83.464080811	
2192.764	83.554748535	
2194.752	83.578285217	
2196.740	83.697021484	
2198.728	83.694686890	
2200.716	83.814773560	
2202.704	83.869659424	
2204.692	83.920288086	
2206.680	83.996910095	
2208.668	84.058944702	
2210.656	84.115020752	
2212.644	84.154853821	
2214.632	84.163764954	
2216.620	84.244522095	
2218.608	84.263626099	
